wavelength	spc
4497.49600	0.02399
4495.56740	0.02396
4493.63880	0.02394
4491.71020	0.02401
4489.78160	0.02409
4487.85300	0.02408
4485.92440	0.02401
4483.99580	0.02401
4482.06720	0.02410
4480.13860	0.02411
4478.21000	0.02401
4476.28140	0.02394
4474.35280	0.02398
4472.42420	0.02407
4470.49560	0.02414
4468.56700	0.02422
4466.63840	0.02427
4464.70980	0.02422
4462.78120	0.02413
4460.85260	0.02404
4458.92400	0.02400
4456.99540	0.02401
4455.06680	0.02405
4453.13820	0.02409
4451.20960	0.02416
4449.28100	0.02422
4447.35240	0.02425
4445.42379	0.02425
4443.49519	0.02429
4441.56659	0.02435
4439.63799	0.02428
4437.70939	0.02420
4435.78079	0.02424
4433.85219	0.02428
4431.92359	0.02424
4429.99499	0.02420
4428.06639	0.02416
4426.13779	0.02410
4424.20919	0.02407
4422.28059	0.02411
4420.35199	0.02423
4418.42339	0.02430
4416.49479	0.02423
4414.56619	0.02413
4412.63759	0.02415
4410.70899	0.02427
4408.78039	0.02436
4406.85179	0.02437
4404.92319	0.02438
4402.99459	0.02443
4401.06599	0.02449
4399.13739	0.02451
4397.20879	0.02448
4395.28019	0.02441
4393.35159	0.02431
4391.42299	0.02425
4389.49438	0.02433
4387.56578	0.02446
4385.63718	0.02442
4383.70858	0.02428
4381.77998	0.02424
4379.85138	0.02433
4377.92278	0.02442
4375.99418	0.02444
4374.06558	0.02443
4372.13698	0.02444
4370.20838	0.02448
4368.27978	0.02452
4366.35118	0.02452
4364.42258	0.02450
4362.49398	0.02445
4360.56538	0.02442
4358.63678	0.02445
4356.70818	0.02454
4354.77958	0.02461
4352.85098	0.02459
4350.92238	0.02456
4348.99378	0.02455
4347.06518	0.02458
4345.13658	0.02462
4343.20798	0.02458
4341.27938	0.02449
4339.35078	0.02446
4337.42218	0.02449
4335.49358	0.02459
4333.56497	0.02468
4331.63637	0.02475
4329.70777	0.02476
4327.77917	0.02469
4325.85057	0.02463
4323.92197	0.02461
4321.99337	0.02458
4320.06477	0.02451
4318.13617	0.02443
4316.20757	0.02434
4314.27897	0.02428
4312.35037	0.02426
4310.42177	0.02429
4308.49317	0.02434
4306.56457	0.02438
4304.63597	0.02440
4302.70737	0.02441
4300.77877	0.02439
4298.85017	0.02426
4296.92157	0.02413
4294.99297	0.02417
4293.06437	0.02428
4291.13577	0.02427
4289.20717	0.02417
4287.27857	0.02414
4285.34997	0.02424
4283.42137	0.02433
4281.49277	0.02430
4279.56417	0.02421
4277.63556	0.02418
4275.70696	0.02421
4273.77836	0.02425
4271.84976	0.02429
4269.92116	0.02430
4267.99256	0.02428
4266.06396	0.02428
4264.13536	0.02433
4262.20676	0.02437
4260.27816	0.02436
4258.34956	0.02435
4256.42096	0.02434
4254.49236	0.02433
4252.56376	0.02436
4250.63516	0.02435
4248.70656	0.02428
4246.77796	0.02425
4244.84936	0.02427
4242.92076	0.02429
4240.99216	0.02427
4239.06356	0.02419
4237.13496	0.02412
4235.20636	0.02414
4233.27776	0.02427
4231.34916	0.02437
4229.42056	0.02433
4227.49196	0.02429
4225.56336	0.02425
4223.63476	0.02415
4221.70615	0.02409
4219.77755	0.02410
4217.84895	0.02413
4215.92035	0.02422
4213.99175	0.02432
4212.06315	0.02433
4210.13455	0.02423
4208.20595	0.02412
4206.27735	0.02411
4204.34875	0.02410
4202.42015	0.02399
4200.49155	0.02393
4198.56295	0.02405
4196.63435	0.02421
4194.70575	0.02423
4192.77715	0.02419
4190.84855	0.02419
4188.91995	0.02416
4186.99135	0.02409
4185.06275	0.02407
4183.13415	0.02409
4181.20555	0.02409
4179.27695	0.02408
4177.34835	0.02405
4175.41975	0.02401
4173.49115	0.02405
4171.56255	0.02411
4169.63395	0.02409
4167.70535	0.02404
4165.77674	0.02407
4163.84814	0.02411
4161.91954	0.02411
4159.99094	0.02410
4158.06234	0.02410
4156.13374	0.02406
4154.20514	0.02400
4152.27654	0.02398
4150.34794	0.02398
4148.41934	0.02403
4146.49074	0.02410
4144.56214	0.02413
4142.63354	0.02405
4140.70494	0.02395
4138.77634	0.02392
4136.84774	0.02398
4134.91914	0.02401
4132.99054	0.02397
4131.06194	0.02393
4129.13334	0.02395
4127.20474	0.02395
4125.27614	0.02391
4123.34754	0.02391
4121.41894	0.02397
4119.49034	0.02401
4117.56174	0.02394
4115.63314	0.02381
4113.70454	0.02378
4111.77594	0.02390
4109.84733	0.02399
4107.91873	0.02394
4105.99013	0.02380
4104.06153	0.02373
4102.13293	0.02381
4100.20433	0.02394
4098.27573	0.02400
4096.34713	0.02400
4094.41853	0.02398
4092.48993	0.02393
4090.56133	0.02390
4088.63273	0.02389
4086.70413	0.02391
4084.77553	0.02393
4082.84693	0.02391
4080.91833	0.02385
4078.98973	0.02380
4077.06113	0.02376
4075.13253	0.02374
4073.20393	0.02372
4071.27533	0.02373
4069.34673	0.02377
4067.41813	0.02378
4065.48953	0.02379
4063.56093	0.02382
4061.63233	0.02385
4059.70373	0.02387
4057.77513	0.02386
4055.84653	0.02383
4053.91792	0.02382
4051.98932	0.02383
4050.06072	0.02380
4048.13212	0.02371
4046.20352	0.02369
4044.27492	0.02382
4042.34632	0.02397
4040.41772	0.02406
4038.48912	0.02407
4036.56052	0.02398
4034.63192	0.02375
4032.70332	0.02353
4030.77472	0.02343
4028.84612	0.02345
4026.91752	0.02353
4024.98892	0.02361
4023.06032	0.02362
4021.13172	0.02362
4019.20312	0.02367
4017.27452	0.02375
4015.34592	0.02380
4013.41732	0.02378
4011.48872	0.02372
4009.56012	0.02365
4007.63152	0.02361
4005.70292	0.02357
4003.77432	0.02353
4001.84572	0.02352
3999.91712	0.02356
3997.98851	0.02356
3996.05991	0.02353
3994.13131	0.02354
3992.20271	0.02361
3990.27411	0.02366
3988.34551	0.02364
3986.41691	0.02356
3984.48831	0.02350
3982.55971	0.02348
3980.63111	0.02348
3978.70251	0.02346
3976.77391	0.02347
3974.84531	0.02349
3972.91671	0.02348
3970.98811	0.02344
3969.05951	0.02337
3967.13091	0.02333
3965.20231	0.02334
3963.27371	0.02333
3961.34511	0.02333
3959.41651	0.02335
3957.48791	0.02333
3955.55931	0.02332
3953.63071	0.02338
3951.70211	0.02348
3949.77351	0.02350
3947.84491	0.02348
3945.91631	0.02345
3943.98771	0.02339
3942.05910	0.02334
3940.13050	0.02330
3938.20190	0.02331
3936.27330	0.02336
3934.34470	0.02334
3932.41610	0.02329
3930.48750	0.02328
3928.55890	0.02319
3926.63030	0.02307
3924.70170	0.02306
3922.77310	0.02310
3920.84450	0.02312
3918.91590	0.02313
3916.98730	0.02315
3915.05870	0.02316
3913.13010	0.02315
3911.20150	0.02318
3909.27290	0.02319
3907.34430	0.02307
3905.41570	0.02296
3903.48710	0.02302
3901.55850	0.02306
3899.62990	0.02295
3897.70130	0.02290
3895.77270	0.02293
3893.84410	0.02291
3891.91550	0.02284
3889.98690	0.02278
3888.05830	0.02272
3886.12969	0.02271
3884.20109	0.02280
3882.27249	0.02290
3880.34389	0.02298
3878.41529	0.02296
3876.48669	0.02284
3874.55809	0.02277
3872.62949	0.02276
3870.70089	0.02270
3868.77229	0.02268
3866.84369	0.02271
3864.91509	0.02273
3862.98649	0.02272
3861.05789	0.02270
3859.12929	0.02270
3857.20069	0.02262
3855.27209	0.02246
3853.34349	0.02247
3851.41489	0.02267
3849.48629	0.02271
3847.55769	0.02263
3845.62909	0.02254
3843.70049	0.02248
3841.77189	0.02243
3839.84329	0.02233
3837.91469	0.02231
3835.98609	0.02240
3834.05749	0.02249
3832.12889	0.02251
3830.20028	0.02249
3828.27168	0.02245
3826.34308	0.02243
3824.41448	0.02236
3822.48588	0.02229
3820.55728	0.02234
3818.62868	0.02234
3816.70008	0.02224
3814.77148	0.02226
3812.84288	0.02232
3810.91428	0.02234
3808.98568	0.02232
3807.05708	0.02229
3805.12848	0.02223
3803.19988	0.02214
3801.27128	0.02212
3799.34268	0.02215
3797.41408	0.02216
3795.48548	0.02218
3793.55688	0.02221
3791.62828	0.02222
3789.69968	0.02216
3787.77108	0.02207
3785.84248	0.02202
3783.91388	0.02200
3781.98528	0.02194
3780.05668	0.02192
3778.12808	0.02202
3776.19948	0.02211
3774.27087	0.02207
3772.34227	0.02194
3770.41367	0.02185
3768.48507	0.02179
3766.55647	0.02177
3764.62787	0.02190
3762.69927	0.02202
3760.77067	0.02198
3758.84207	0.02187
3756.91347	0.02174
3754.98487	0.02154
3753.05627	0.02135
3751.12767	0.02142
3749.19907	0.02160
3747.27047	0.02153
3745.34187	0.02151
3743.41327	0.02177
3741.48467	0.02186
3739.55607	0.02171
3737.62747	0.02158
3735.69887	0.02157
3733.77027	0.02159
3731.84167	0.02157
3729.91307	0.02154
3727.98447	0.02147
3726.05587	0.02144
3724.12727	0.02149
3722.19867	0.02150
3720.27007	0.02148
3718.34146	0.02149
3716.41286	0.02148
3714.48426	0.02138
3712.55566	0.02132
3710.62706	0.02141
3708.69846	0.02145
3706.76986	0.02135
3704.84126	0.02124
3702.91266	0.02129
3700.98406	0.02147
3699.05546	0.02151
3697.12686	0.02144
3695.19826	0.02133
3693.26966	0.02113
3691.34106	0.02097
3689.41246	0.02107
3687.48386	0.02136
3685.55526	0.02150
3683.62666	0.02146
3681.69806	0.02133
3679.76946	0.02115
3677.84086	0.02101
3675.91226	0.02113
3673.98366	0.02139
3672.05506	0.02146
3670.12646	0.02153
3668.19786	0.02170
3666.26926	0.02181
3664.34066	0.02189
3662.41205	0.02203
3660.48345	0.02215
3658.55485	0.02216
3656.62625	0.02221
3654.69765	0.02233
3652.76905	0.02233
3650.84045	0.02238
3648.91185	0.02274
3646.98325	0.02307
3645.05465	0.02319
3643.12605	0.02322
3641.19745	0.02330
3639.26885	0.02356
3637.34025	0.02390
3635.41165	0.02409
3633.48305	0.02411
3631.55445	0.02404
3629.62585	0.02419
3627.69725	0.02469
3625.76865	0.02503
3623.84005	0.02515
3621.91145	0.02524
3619.98285	0.02541
3618.05425	0.02559
3616.12565	0.02567
3614.19705	0.02574
3612.26845	0.02591
3610.33985	0.02616
3608.41125	0.02642
3606.48264	0.02664
3604.55404	0.02686
3602.62544	0.02711
3600.69684	0.02728
3598.76824	0.02741
3596.83964	0.02769
3594.91104	0.02810
3592.98244	0.02842
3591.05384	0.02855
3589.12524	0.02864
3587.19664	0.02887
3585.26804	0.02919
3583.33944	0.02945
3581.41084	0.02971
3579.48224	0.03001
3577.55364	0.03026
3575.62504	0.03044
3573.69644	0.03062
3571.76784	0.03087
3569.83924	0.03123
3567.91064	0.03176
3565.98204	0.03235
3564.05344	0.03267
3562.12484	0.03284
3560.19624	0.03317
3558.26764	0.03367
3556.33904	0.03409
3554.41044	0.03437
3552.48184	0.03463
3550.55323	0.03491
3548.62463	0.03525
3546.69603	0.03566
3544.76743	0.03611
3542.83883	0.03646
3540.91023	0.03670
3538.98163	0.03695
3537.05303	0.03736
3535.12443	0.03781
3533.19583	0.03819
3531.26723	0.03853
3529.33863	0.03890
3527.41003	0.03923
3525.48143	0.03948
3523.55283	0.03968
3521.62423	0.03995
3519.69563	0.04027
3517.76703	0.04056
3515.83843	0.04084
3513.90983	0.04119
3511.98123	0.04155
3510.05263	0.04189
3508.12403	0.04219
3506.19543	0.04242
3504.26683	0.04262
3502.33823	0.04294
3500.40963	0.04338
3498.48103	0.04384
3496.55243	0.04424
3494.62382	0.04451
3492.69522	0.04469
3490.76662	0.04487
3488.83802	0.04515
3486.90942	0.04550
3484.98082	0.04583
3483.05222	0.04605
3481.12362	0.04622
3479.19502	0.04641
3477.26642	0.04666
3475.33782	0.04688
3473.40922	0.04701
3471.48062	0.04713
3469.55202	0.04729
3467.62342	0.04747
3465.69482	0.04764
3463.76622	0.04779
3461.83762	0.04790
3459.90902	0.04807
3457.98042	0.04834
3456.05182	0.04864
3454.12322	0.04881
3452.19462	0.04887
3450.26602	0.04894
3448.33742	0.04906
3446.40882	0.04920
3444.48022	0.04934
3442.55162	0.04946
3440.62302	0.04961
3438.69441	0.04976
3436.76581	0.04991
3434.83721	0.05002
3432.90861	0.05008
3430.98001	0.05021
3429.05141	0.05044
3427.12281	0.05059
3425.19421	0.05062
3423.26561	0.05071
3421.33701	0.05088
3419.40841	0.05102
3417.47981	0.05114
3415.55121	0.05122
3413.62261	0.05128
3411.69401	0.05135
3409.76541	0.05145
3407.83681	0.05154
3405.90821	0.05163
3403.97961	0.05172
3402.05101	0.05181
3400.12241	0.05187
3398.19381	0.05192
3396.26521	0.05197
3394.33661	0.05200
3392.40801	0.05202
3390.47941	0.05207
3388.55081	0.05216
3386.62221	0.05227
3384.69361	0.05241
3382.76500	0.05247
3380.83640	0.05243
3378.90780	0.05235
3376.97920	0.05229
3375.05060	0.05228
3373.12200	0.05236
3371.19340	0.05242
3369.26480	0.05240
3367.33620	0.05237
3365.40760	0.05240
3363.47900	0.05247
3361.55040	0.05249
3359.62180	0.05248
3357.69320	0.05248
3355.76460	0.05248
3353.83600	0.05239
3351.90740	0.05232
3349.97880	0.05231
3348.05020	0.05231
3346.12160	0.05226
3344.19300	0.05224
3342.26440	0.05225
3340.33580	0.05224
3338.40720	0.05221
3336.47860	0.05223
3334.55000	0.05225
3332.62140	0.05216
3330.69280	0.05203
3328.76420	0.05197
3326.83559	0.05190
3324.90699	0.05180
3322.97839	0.05170
3321.04979	0.05158
3319.12119	0.05141
3317.19259	0.05123
3315.26399	0.05112
3313.33539	0.05109
3311.40679	0.05104
3309.47819	0.05094
3307.54959	0.05082
3305.62099	0.05070
3303.69239	0.05062
3301.76379	0.05062
3299.83519	0.05061
3297.90659	0.05052
3295.97799	0.05042
3294.04939	0.05037
3292.12079	0.05028
3290.19219	0.05015
3288.26359	0.05005
3286.33499	0.04998
3284.40639	0.04994
3282.47779	0.04990
3280.54919	0.04983
3278.62059	0.04968
3276.69199	0.04951
3274.76339	0.04933
3272.83479	0.04916
3270.90618	0.04902
3268.97758	0.04892
3267.04898	0.04885
3265.12038	0.04876
3263.19178	0.04859
3261.26318	0.04836
3259.33458	0.04814
3257.40598	0.04801
3255.47738	0.04794
3253.54878	0.04788
3251.62018	0.04778
3249.69158	0.04758
3247.76298	0.04735
3245.83438	0.04724
3243.90578	0.04721
3241.97718	0.04714
3240.04858	0.04694
3238.11998	0.04665
3236.19138	0.04640
3234.26278	0.04623
3232.33418	0.04614
3230.40558	0.04606
3228.47698	0.04592
3226.54838	0.04573
3224.61978	0.04560
3222.69118	0.04549
3220.76258	0.04534
3218.83398	0.04520
3216.90538	0.04506
3214.97677	0.04490
3213.04817	0.04475
3211.11957	0.04464
3209.19097	0.04453
3207.26237	0.04440
3205.33377	0.04420
3203.40517	0.04399
3201.47657	0.04383
3199.54797	0.04367
3197.61937	0.04351
3195.69077	0.04337
3193.76217	0.04323
3191.83357	0.04311
3189.90497	0.04300
3187.97637	0.04279
3186.04777	0.04254
3184.11917	0.04236
3182.19057	0.04229
3180.26197	0.04219
3178.33337	0.04199
3176.40477	0.04175
3174.47617	0.04153
3172.54757	0.04137
3170.61897	0.04125
3168.69037	0.04108
3166.76177	0.04090
3164.83317	0.04074
3162.90457	0.04058
3160.97597	0.04041
3159.04736	0.04023
3157.11876	0.04005
3155.19016	0.03991
3153.26156	0.03976
3151.33296	0.03958
3149.40436	0.03938
3147.47576	0.03923
3145.54716	0.03914
3143.61856	0.03905
3141.68996	0.03893
3139.76136	0.03880
3137.83276	0.03865
3135.90416	0.03844
3133.97556	0.03823
3132.04696	0.03806
3130.11836	0.03793
3128.18976	0.03781
3126.26116	0.03769
3124.33256	0.03759
3122.40396	0.03749
3120.47536	0.03734
3118.54676	0.03717
3116.61816	0.03706
3114.68956	0.03700
3112.76096	0.03691
3110.83236	0.03676
3108.90376	0.03660
3106.97516	0.03647
3105.04656	0.03642
3103.11795	0.03633
3101.18935	0.03620
3099.26075	0.03607
3097.33215	0.03594
3095.40355	0.03582
3093.47495	0.03573
3091.54635	0.03566
3089.61775	0.03558
3087.68915	0.03548
3085.76055	0.03541
3083.83195	0.03536
3081.90335	0.03528
3079.97475	0.03521
3078.04615	0.03517
3076.11755	0.03514
3074.18895	0.03510
3072.26035	0.03504
3070.33175	0.03495
3068.40315	0.03485
3066.47455	0.03476
3064.54595	0.03468
3062.61735	0.03456
3060.68875	0.03439
3058.76015	0.03422
3056.83155	0.03410
3054.90295	0.03405
3052.97435	0.03398
3051.04575	0.03381
3049.11715	0.03365
3047.18854	0.03358
3045.25994	0.03348
3043.33134	0.03337
3041.40274	0.03331
3039.47414	0.03325
3037.54554	0.03311
3035.61694	0.03296
3033.68834	0.03286
3031.75974	0.03283
3029.83114	0.03282
3027.90254	0.03284
3025.97394	0.03288
3024.04534	0.03288
3022.11674	0.03288
3020.18814	0.03293
3018.25954	0.03300
3016.33094	0.03309
3014.40234	0.03326
3012.47374	0.03353
3010.54514	0.03383
3008.61654	0.03414
3006.68794	0.03442
3004.75934	0.03460
3002.83074	0.03468
3000.90214	0.03468
2998.97354	0.03467
2997.04494	0.03474
2995.11634	0.03488
2993.18774	0.03505
2991.25913	0.03526
2989.33053	0.03553
2987.40193	0.03588
2985.47333	0.03633
2983.54473	0.03691
2981.61613	0.03759
2979.68753	0.03832
2977.75893	0.03909
2975.83033	0.03992
2973.90173	0.04082
2971.97313	0.04176
2970.04453	0.04276
2968.11593	0.04382
2966.18733	0.04495
2964.25873	0.04619
2962.33013	0.04750
2960.40153	0.04883
2958.47293	0.05024
2956.54433	0.05184
2954.61573	0.05360
2952.68713	0.05549
2950.75853	0.05755
2948.82993	0.05982
2946.90133	0.06229
2944.97273	0.06501
2943.04413	0.06805
2941.11553	0.07141
2939.18693	0.07508
2937.25833	0.07902
2935.32972	0.08317
2933.40112	0.08752
2931.47252	0.09202
2929.54392	0.09653
2927.61532	0.10088
2925.68672	0.10500
2923.75812	0.10892
2921.82952	0.11240
2919.90092	0.11475
2917.97232	0.11489
2916.04372	0.11188
2914.11512	0.10593
2912.18652	0.09872
2910.25792	0.09208
2908.32932	0.08671
2906.40072	0.08245
2904.47212	0.07902
2902.54352	0.07619
2900.61492	0.07372
2898.68632	0.07140
2896.75772	0.06921
2894.82912	0.06718
2892.90052	0.06524
2890.97192	0.06335
2889.04332	0.06153
2887.11472	0.05983
2885.18612	0.05831
2883.25752	0.05696
2881.32892	0.05576
2879.40031	0.05478
2877.47171	0.05410
2875.54311	0.05380
2873.61451	0.05396
2871.68591	0.05455
2869.75731	0.05550
2867.82871	0.05684
2865.90011	0.05872
2863.97151	0.06123
2862.04291	0.06444
2860.11431	0.06851
2858.18571	0.07351
2856.25711	0.07929
2854.32851	0.08534
2852.39991	0.09038
2850.47131	0.09220
2848.54271	0.08918
2846.61411	0.08219
2844.68551	0.07388
2842.75691	0.06627
2840.82831	0.06010
2838.89971	0.05537
2836.97111	0.05181
2835.04251	0.04915
2833.11391	0.04711
2831.18531	0.04545
2829.25671	0.04405
2827.32811	0.04284
2825.39951	0.04179
2823.47090	0.04089
2821.54230	0.04014
2819.61370	0.03950
2817.68510	0.03892
2815.75650	0.03837
2813.82790	0.03788
2811.89930	0.03748
2809.97070	0.03712
2808.04210	0.03678
2806.11350	0.03644
2804.18490	0.03606
2802.25630	0.03565
2800.32770	0.03532
2798.39910	0.03511
2796.47050	0.03494
2794.54190	0.03474
2792.61330	0.03450
2790.68470	0.03430
2788.75610	0.03414
2786.82750	0.03399
2784.89890	0.03382
2782.97030	0.03365
2781.04170	0.03347
2779.11310	0.03329
2777.18450	0.03312
2775.25590	0.03300
2773.32730	0.03290
2771.39870	0.03281
2769.47010	0.03273
2767.54149	0.03265
2765.61289	0.03257
2763.68429	0.03252
2761.75569	0.03248
2759.82709	0.03240
2757.89849	0.03226
2755.96989	0.03211
2754.04129	0.03199
2752.11269	0.03189
2750.18409	0.03178
2748.25549	0.03172
2746.32689	0.03174
2744.39829	0.03175
2742.46969	0.03170
2740.54109	0.03165
2738.61249	0.03161
2736.68389	0.03158
2734.75529	0.03153
2732.82669	0.03146
2730.89809	0.03139
2728.96949	0.03134
2727.04089	0.03128
2725.11229	0.03121
2723.18369	0.03114
2721.25509	0.03106
2719.32649	0.03100
2717.39789	0.03096
2715.46929	0.03090
2713.54069	0.03083
2711.61208	0.03075
2709.68348	0.03068
2707.75488	0.03062
2705.82628	0.03058
2703.89768	0.03060
2701.96908	0.03066
2700.04048	0.03066
2698.11188	0.03054
2696.18328	0.03041
2694.25468	0.03038
2692.32608	0.03041
2690.39748	0.03040
2688.46888	0.03032
2686.54028	0.03021
2684.61168	0.03015
2682.68308	0.03012
2680.75448	0.03012
2678.82588	0.03010
2676.89728	0.03004
2674.96868	0.02998
2673.04008	0.02998
2671.11148	0.02998
2669.18288	0.02994
2667.25428	0.02990
2665.32568	0.02989
2663.39708	0.02987
2661.46848	0.02981
2659.53988	0.02969
2657.61128	0.02953
2655.68267	0.02936
2653.75407	0.02926
2651.82547	0.02924
2649.89687	0.02922
2647.96827	0.02913
2646.03967	0.02900
2644.11107	0.02885
2642.18247	0.02871
2640.25387	0.02859
2638.32527	0.02844
2636.39667	0.02833
2634.46807	0.02832
2632.53947	0.02833
2630.61087	0.02824
2628.68227	0.02807
2626.75367	0.02793
2624.82507	0.02788
2622.89647	0.02779
2620.96787	0.02764
2619.03927	0.02750
2617.11067	0.02738
2615.18207	0.02722
2613.25347	0.02705
2611.32487	0.02696
2609.39627	0.02692
2607.46767	0.02687
2605.53907	0.02681
2603.61047	0.02675
2601.68187	0.02670
2599.75326	0.02663
2597.82466	0.02655
2595.89606	0.02647
2593.96746	0.02645
2592.03886	0.02645
2590.11026	0.02638
2588.18166	0.02625
2586.25306	0.02615
2584.32446	0.02612
2582.39586	0.02605
2580.46726	0.02592
2578.53866	0.02582
2576.61006	0.02583
2574.68146	0.02584
2572.75286	0.02576
2570.82426	0.02568
2568.89566	0.02566
2566.96706	0.02558
2565.03846	0.02542
2563.10986	0.02533
2561.18126	0.02532
2559.25266	0.02535
2557.32406	0.02534
2555.39546	0.02527
2553.46686	0.02519
2551.53826	0.02514
2549.60966	0.02509
2547.68106	0.02502
2545.75246	0.02492
2543.82385	0.02487
2541.89525	0.02490
2539.96665	0.02489
2538.03805	0.02480
2536.10945	0.02474
2534.18085	0.02472
2532.25225	0.02470
2530.32365	0.02465
2528.39505	0.02455
2526.46645	0.02443
2524.53785	0.02438
2522.60925	0.02440
2520.68065	0.02441
2518.75205	0.02441
2516.82345	0.02437
2514.89485	0.02425
2512.96625	0.02413
2511.03765	0.02408
2509.10905	0.02407
2507.18045	0.02406
2505.25185	0.02403
2503.32325	0.02398
2501.39465	0.02391
2499.46605	0.02386
2497.53745	0.02383
2495.60885	0.02377
2493.68025	0.02364
2491.75165	0.02352
2489.82305	0.02352
2487.89444	0.02355
2485.96584	0.02352
2484.03724	0.02350
2482.10864	0.02351
2480.18004	0.02345
2478.25144	0.02335
2476.32284	0.02330
2474.39424	0.02328
2472.46564	0.02324
2470.53704	0.02320
2468.60844	0.02318
2466.67984	0.02312
2464.75124	0.02304
2462.82264	0.02305
2460.89404	0.02312
2458.96544	0.02316
2457.03684	0.02313
2455.10824	0.02307
2453.17964	0.02301
2451.25104	0.02298
2449.32244	0.02301
2447.39384	0.02307
2445.46524	0.02307
2443.53664	0.02303
2441.60804	0.02292
2439.67944	0.02277
2437.75084	0.02267
2435.82224	0.02267
2433.89364	0.02268
2431.96503	0.02258
2430.03643	0.02248
2428.10783	0.02251
2426.17923	0.02256
2424.25063	0.02251
2422.32203	0.02243
2420.39343	0.02242
2418.46483	0.02246
2416.53623	0.02248
2414.60763	0.02240
2412.67903	0.02219
2410.75043	0.02199
2408.82183	0.02196
2406.89323	0.02204
2404.96463	0.02213
2403.03603	0.02219
2401.10743	0.02223
2399.17883	0.02225
2397.25023	0.02220
2395.32163	0.02210
2393.39303	0.02204
2391.46443	0.02201
2389.53583	0.02199
2387.60723	0.02195
2385.67863	0.02190
2383.75003	0.02192
2381.82143	0.02199
2379.89283	0.02201
2377.96423	0.02205
2376.03562	0.02218
2374.10702	0.02238
2372.17842	0.02270
2370.24982	0.02328
2368.32122	0.02389
2366.39262	0.02373
2364.46402	0.02307
2362.53542	0.02266
2360.60682	0.02214
2358.67822	0.02218
2356.74962	0.02296
2354.82102	0.02298
2352.89242	0.02244
2350.96382	0.02214
2349.03522	0.02208
2347.10662	0.02220
2345.17802	0.02269
2343.24942	0.02326
2341.32082	0.02320
2339.39222	0.02284
2337.46362	0.02272
2335.53502	0.02273
2333.60642	0.02274
2331.67782	0.02264
2329.74922	0.02256
2327.82062	0.02270
2325.89202	0.02281
2323.96342	0.02274
2322.03482	0.02256
2320.10621	0.02234
2318.17761	0.02214
2316.24901	0.02204
2314.32041	0.02206
2312.39181	0.02202
2310.46321	0.02183
2308.53461	0.02171
2306.60601	0.02161
2304.67741	0.02140
2302.74881	0.02127
2300.82021	0.02127
2298.89161	0.02127
2296.96301	0.02126
2295.03441	0.02125
2293.10581	0.02123
2291.17721	0.02115
2289.24861	0.02102
2287.32001	0.02084
2285.39141	0.02061
2283.46281	0.02043
2281.53421	0.02034
2279.60561	0.02032
2277.67701	0.02036
2275.74841	0.02036
2273.81981	0.02019
2271.89121	0.01996
2269.96261	0.01980
2268.03401	0.01973
2266.10541	0.01968
2264.17680	0.01953
2262.24820	0.01928
2260.31960	0.01917
2258.39100	0.01923
2256.46240	0.01922
2254.53380	0.01912
2252.60520	0.01909
2250.67660	0.01908
2248.74800	0.01908
2246.81940	0.01908
2244.89080	0.01904
2242.96220	0.01898
2241.03360	0.01883
2239.10500	0.01860
2237.17640	0.01842
2235.24780	0.01832
2233.31920	0.01823
2231.39060	0.01826
2229.46200	0.01845
2227.53340	0.01852
2225.60480	0.01841
2223.67620	0.01839
2221.74760	0.01843
2219.81900	0.01836
2217.89040	0.01815
2215.96180	0.01800
2214.03320	0.01804
2212.10460	0.01805
2210.17600	0.01784
2208.24739	0.01767
2206.31879	0.01779
2204.39019	0.01791
2202.46159	0.01782
2200.53299	0.01772
2198.60439	0.01758
2196.67579	0.01732
2194.74719	0.01705
2192.81859	0.01684
2190.88999	0.01669
2188.96139	0.01661
2187.03279	0.01659
2185.10419	0.01665
2183.17559	0.01667
2181.24699	0.01637
2179.31839	0.01598
2177.38979	0.01595
2175.46119	0.01619
2173.53259	0.01651
2171.60399	0.01665
2169.67539	0.01657
2167.74679	0.01648
2165.81819	0.01642
2163.88959	0.01629
2161.96099	0.01599
2160.03239	0.01546
2158.10379	0.01508
2156.17519	0.01508
2154.24659	0.01513
2152.31798	0.01515
2150.38938	0.01526
2148.46078	0.01544
2146.53218	0.01555
2144.60358	0.01575
2142.67498	0.01611
2140.74638	0.01635
2138.81778	0.01631
2136.88918	0.01615
2134.96058	0.01612
2133.03198	0.01635
2131.10338	0.01677
2129.17478	0.01717
2127.24618	0.01731
2125.31758	0.01721
2123.38898	0.01712
2121.46038	0.01719
2119.53178	0.01735
2117.60318	0.01758
2115.67458	0.01788
2113.74598	0.01800
2111.81738	0.01779
2109.88878	0.01754
2107.96018	0.01756
2106.03158	0.01783
2104.10298	0.01803
2102.17438	0.01794
2100.24578	0.01773
2098.31718	0.01756
2096.38857	0.01746
2094.45997	0.01745
2092.53137	0.01747
2090.60277	0.01745
2088.67417	0.01746
2086.74557	0.01753
2084.81697	0.01758
2082.88837	0.01752
2080.95977	0.01731
2079.03117	0.01711
2077.10257	0.01704
2075.17397	0.01698
2073.24537	0.01689
2071.31677	0.01690
2069.38817	0.01691
2067.45957	0.01688
2065.53097	0.01693
2063.60237	0.01688
2061.67377	0.01656
2059.74517	0.01634
2057.81657	0.01655
2055.88797	0.01685
2053.95937	0.01686
2052.03077	0.01674
2050.10217	0.01651
2048.17357	0.01604
2046.24497	0.01557
2044.31637	0.01531
2042.38777	0.01506
2040.45916	0.01462
2038.53056	0.01425
2036.60196	0.01428
2034.67336	0.01456
2032.74476	0.01473
2030.81616	0.01460
2028.88756	0.01433
2026.95896	0.01423
2025.03036	0.01425
2023.10176	0.01427
2021.17316	0.01432
2019.24456	0.01412
2017.31596	0.01377
2015.38736	0.01376
2013.45876	0.01402
2011.53016	0.01423
2009.60156	0.01432
2007.67296	0.01432
2005.74436	0.01426
2003.81576	0.01417
2001.88716	0.01406
1999.95856	0.01399
1998.02996	0.01401
1996.10136	0.01417
1994.17276	0.01448
1992.24416	0.01464
1990.31556	0.01435
1988.38696	0.01395
1986.45836	0.01394
1984.52975	0.01416
1982.60115	0.01426
1980.67255	0.01414
1978.74395	0.01387
1976.81535	0.01363
1974.88675	0.01339
1972.95815	0.01304
1971.02955	0.01290
1969.10095	0.01329
1967.17235	0.01384
1965.24375	0.01405
1963.31515	0.01407
1961.38655	0.01403
1959.45795	0.01402
1957.52935	0.01423
1955.60075	0.01443
1953.67215	0.01449
1951.74355	0.01466
1949.81495	0.01494
1947.88635	0.01509
1945.95775	0.01514
1944.02915	0.01514
1942.10055	0.01506
1940.17195	0.01495
1938.24335	0.01496
1936.31475	0.01518
1934.38615	0.01549
1932.45755	0.01558
1930.52895	0.01546
1928.60034	0.01542
1926.67174	0.01546
1924.74314	0.01541
1922.81454	0.01539
1920.88594	0.01543
1918.95734	0.01537
1917.02874	0.01536
1915.10014	0.01551
1913.17154	0.01563
1911.24294	0.01568
1909.31434	0.01578
1907.38574	0.01586
1905.45714	0.01584
1903.52854	0.01575
1901.59994	0.01568
1899.67134	0.01573
1897.74274	0.01589
1895.81414	0.01601
1893.88554	0.01597
1891.95694	0.01589
1890.02834	0.01588
1888.09974	0.01588
1886.17114	0.01583
1884.24254	0.01575
1882.31394	0.01580
1880.38534	0.01592
1878.45674	0.01591
1876.52814	0.01585
1874.59954	0.01581
1872.67093	0.01578
1870.74233	0.01573
1868.81373	0.01572
1866.88513	0.01576
1864.95653	0.01578
1863.02793	0.01580
1861.09933	0.01586
1859.17073	0.01588
1857.24213	0.01588
1855.31353	0.01594
1853.38493	0.01597
1851.45633	0.01593
1849.52773	0.01592
1847.59913	0.01594
1845.67053	0.01591
1843.74193	0.01585
1841.81333	0.01585
1839.88473	0.01584
1837.95613	0.01581
1836.02753	0.01583
1834.09893	0.01591
1832.17033	0.01599
1830.24173	0.01602
1828.31313	0.01600
1826.38453	0.01597
1824.45593	0.01598
1822.52733	0.01601
1820.59873	0.01602
1818.67013	0.01606
1816.74152	0.01616
1814.81292	0.01626
1812.88432	0.01632
1810.95572	0.01644
1809.02712	0.01664
1807.09852	0.01677
1805.16992	0.01677
1803.24132	0.01674
1801.31272	0.01683
1799.38412	0.01699
1797.45552	0.01709
1795.52692	0.01711
1793.59832	0.01715
1791.66972	0.01733
1789.74112	0.01757
1787.81252	0.01777
1785.88392	0.01794
1783.95532	0.01818
1782.02672	0.01850
1780.09812	0.01886
1778.16952	0.01927
1776.24092	0.01969
1774.31232	0.02023
1772.38372	0.02112
1770.45512	0.02241
1768.52652	0.02384
1766.59792	0.02550
1764.66932	0.02749
1762.74072	0.03034
1760.81211	0.03436
1758.88351	0.03915
1756.95491	0.04534
1755.02631	0.05258
1753.09771	0.06037
1751.16911	0.07037
1749.24051	0.08232
1747.31191	0.09330
1745.38331	0.10259
1743.45471	0.11049
1741.52611	0.11679
1739.59751	0.12107
1737.66891	0.12265
1735.74031	0.12180
1733.81171	0.11879
1731.88311	0.11443
1729.95451	0.10972
1728.02591	0.10480
1726.09731	0.10028
1724.16871	0.09631
1722.24011	0.09307
1720.31151	0.09053
1718.38291	0.08833
1716.45431	0.08640
1714.52571	0.08463
1712.59711	0.08265
1710.66851	0.08017
1708.73991	0.07722
1706.81131	0.07368
1704.88270	0.06986
1702.95410	0.06651
1701.02550	0.06296
1699.09690	0.05921
1697.16830	0.05639
1695.23970	0.05393
1693.31110	0.05192
1691.38250	0.05038
1689.45390	0.04897
1687.52530	0.04778
1685.59670	0.04674
1683.66810	0.04594
1681.73950	0.04567
1679.81090	0.04563
1677.88230	0.04571
1675.95370	0.04603
1674.02510	0.04650
1672.09650	0.04682
1670.16790	0.04711
1668.23930	0.04738
1666.31070	0.04736
1664.38210	0.04718
1662.45350	0.04704
1660.52490	0.04697
1658.59630	0.04685
1656.66770	0.04666
1654.73910	0.04660
1652.81050	0.04710
1650.88190	0.04762
1648.95329	0.04798
1647.02469	0.04903
1645.09609	0.05075
1643.16749	0.05231
1641.23889	0.05377
1639.31029	0.05514
1637.38169	0.05640
1635.45309	0.05762
1633.52449	0.05808
1631.59589	0.05773
1629.66729	0.05698
1627.73869	0.05601
1625.81009	0.05507
1623.88149	0.05433
1621.95289	0.05389
1620.02429	0.05369
1618.09569	0.05379
1616.16709	0.05445
1614.23849	0.05513
1612.30989	0.05551
1610.38129	0.05582
1608.45269	0.05618
1606.52409	0.05650
1604.59549	0.05672
1602.66689	0.05687
1600.73829	0.05685
1598.80969	0.05656
1596.88109	0.05596
1594.95249	0.05500
1593.02388	0.05371
1591.09528	0.05226
1589.16668	0.05070
1587.23808	0.04904
1585.30948	0.04735
1583.38088	0.04567
1581.45228	0.04393
1579.52368	0.04218
1577.59508	0.04031
1575.66648	0.03822
1573.73788	0.03655
1571.80928	0.03526
1569.88068	0.03393
1567.95208	0.03278
1566.02348	0.03200
1564.09488	0.03141
1562.16628	0.03091
1560.23768	0.03043
1558.30908	0.03006
1556.38048	0.03000
1554.45188	0.03000
1552.52328	0.03002
1550.59468	0.03009
1548.66608	0.03021
1546.73748	0.03032
1544.80888	0.03039
1542.88028	0.03051
1540.95168	0.03082
1539.02308	0.03144
1537.09447	0.03189
1535.16587	0.03231
1533.23727	0.03312
1531.30867	0.03417
1529.38007	0.03526
1527.45147	0.03672
1525.52287	0.03868
1523.59427	0.04124
1521.66567	0.04533
1519.73707	0.05016
1517.80847	0.05439
1515.87987	0.05837
1513.95127	0.06144
1512.02267	0.06336
1510.09407	0.06437
1508.16547	0.06428
1506.23687	0.06244
1504.30827	0.05971
1502.37967	0.05692
1500.45107	0.05384
1498.52247	0.05058
1496.59387	0.04751
1494.66527	0.04513
1492.73667	0.04340
1490.80807	0.04195
1488.87947	0.04089
1486.95087	0.04043
1485.02227	0.04039
1483.09367	0.04075
1481.16506	0.04167
1479.23646	0.04315
1477.30786	0.04543
1475.37926	0.04909
1473.45066	0.05542
1471.52206	0.06407
1469.59346	0.07128
1467.66486	0.07619
1465.73626	0.07914
1463.80766	0.07961
1461.87906	0.07860
1459.95046	0.07750
1458.02186	0.07701
1456.09326	0.07729
1454.16466	0.07725
1452.23606	0.07653
1450.30746	0.07530
1448.37886	0.07357
1446.45026	0.07154
1444.52166	0.06961
1442.59306	0.06791
1440.66446	0.06656
1438.73586	0.06566
1436.80726	0.06514
1434.87866	0.06486
1432.95006	0.06459
1431.02146	0.06428
1429.09286	0.06399
1427.16426	0.06379
1425.23565	0.06383
1423.30705	0.06412
1421.37845	0.06447
1419.44985	0.06473
1417.52125	0.06458
1415.59265	0.06367
1413.66405	0.06212
1411.73545	0.06016
1409.80685	0.05822
1407.87825	0.05676
1405.94965	0.05594
1404.02105	0.05578
1402.09245	0.05609
1400.16385	0.05675
1398.23525	0.05775
1396.30665	0.05907
1394.37805	0.06081
1392.44945	0.06264
1390.52085	0.06412
1388.59225	0.06526
1386.66365	0.06618
1384.73505	0.06696
1382.80645	0.06772
1380.87785	0.06861
1378.94925	0.06958
1377.02065	0.07049
1375.09205	0.07146
1373.16345	0.07251
1371.23485	0.07340
1369.30624	0.07409
1367.37764	0.07463
1365.44904	0.07496
1363.52044	0.07512
1361.59184	0.07504
1359.66324	0.07468
1357.73464	0.07425
1355.80604	0.07394
1353.87744	0.07375
1351.94884	0.07360
1350.02024	0.07347
1348.09164	0.07337
1346.16304	0.07342
1344.23444	0.07359
1342.30584	0.07377
1340.37724	0.07407
1338.44864	0.07457
1336.52004	0.07514
1334.59144	0.07570
1332.66284	0.07628
1330.73424	0.07686
1328.80564	0.07741
1326.87704	0.07797
1324.94844	0.07860
1323.01984	0.07923
1321.09124	0.07977
1319.16264	0.08024
1317.23404	0.08068
1315.30544	0.08104
1313.37683	0.08132
1311.44823	0.08157
1309.51963	0.08181
1307.59103	0.08205
1305.66243	0.08234
1303.73383	0.08267
1301.80523	0.08297
1299.87663	0.08323
1297.94803	0.08357
1296.01943	0.08414
1294.09083	0.08494
1292.16223	0.08603
1290.23363	0.08753
1288.30503	0.08954
1286.37643	0.09202
1284.44783	0.09482
1282.51923	0.09783
1280.59063	0.10100
1278.66203	0.10434
1276.73343	0.10781
1274.80483	0.11129
1272.87623	0.11461
1270.94763	0.11765
1269.01903	0.12027
1267.09043	0.12242
1265.16183	0.12423
1263.23323	0.12579
1261.30463	0.12710
1259.37603	0.12798
1257.44742	0.12828
1255.51882	0.12813
1253.59022	0.12778
1251.66162	0.12750
1249.73302	0.12750
1247.80442	0.12778
1245.87582	0.12822
1243.94722	0.12869
1242.01862	0.12907
1240.09002	0.12927
1238.16142	0.12927
1236.23282	0.12902
1234.30422	0.12856
1232.37562	0.12797
1230.44702	0.12729
1228.51842	0.12657
1226.58982	0.12593
1224.66122	0.12545
1222.73262	0.12506
1220.80402	0.12468
1218.87542	0.12425
1216.94682	0.12378
1215.01822	0.12327
1213.08962	0.12262
1211.16102	0.12174
1209.23242	0.12061
1207.30382	0.11931
1205.37522	0.11798
1203.44662	0.11674
1201.51801	0.11571
1199.58941	0.11506
1197.66081	0.11498
1195.73221	0.11552
1193.80361	0.11664
1191.87501	0.11822
1189.94641	0.12013
1188.01781	0.12224
1186.08921	0.12461
1184.16061	0.12739
1182.23201	0.13077
1180.30341	0.13465
1178.37481	0.13874
1176.44621	0.14286
1174.51761	0.14692
1172.58901	0.15074
1170.66041	0.15415
1168.73181	0.15721
1166.80321	0.16009
1164.87461	0.16284
1162.94601	0.16529
1161.01741	0.16705
1159.08881	0.16773
1157.16021	0.16712
1155.23161	0.16546
1153.30301	0.16317
1151.37441	0.16066
1149.44581	0.15823
1147.51721	0.15596
1145.58860	0.15362
1143.66000	0.15088
1141.73140	0.14767
1139.80280	0.14421
1137.87420	0.14073
1135.94560	0.13745
1134.01700	0.13445
1132.08840	0.13174
1130.15980	0.12944
1128.23120	0.12770
1126.30260	0.12646
1124.37400	0.12553
1122.44540	0.12492
1120.51680	0.12467
1118.58820	0.12480
1116.65960	0.12533
1114.73100	0.12619
1112.80240	0.12720
1110.87380	0.12822
1108.94520	0.12921
1107.01660	0.13025
1105.08800	0.13148
1103.15940	0.13282
1101.23080	0.13405
1099.30220	0.13514
1097.37360	0.13615
1095.44500	0.13683
1093.51640	0.13691
1091.58780	0.13653
1089.65919	0.13591
1087.73059	0.13517
1085.80199	0.13438
1083.87339	0.13358
1081.94479	0.13301
1080.01619	0.13282
1078.08759	0.13291
1076.15899	0.13319
1074.23039	0.13361
1072.30179	0.13415
1070.37319	0.13477
1068.44459	0.13554
1066.51599	0.13658
1064.58739	0.13790
1062.65879	0.13938
1060.73019	0.14102
1058.80159	0.14294
1056.87299	0.14496
1054.94439	0.14693
1053.01579	0.14903
1051.08719	0.15113
1049.15859	0.15276
1047.22999	0.15392
1045.30139	0.15506
1043.37279	0.15642
1041.44419	0.15812
1039.51559	0.16003
1037.58699	0.16175
1035.65839	0.16293
1033.72978	0.16332
1031.80118	0.16267
1029.87258	0.16098
1027.94398	0.15852
1026.01538	0.15558
1024.08678	0.15243
1022.15818	0.14923
1020.22958	0.14600
1018.30098	0.14281
1016.37238	0.13970
1014.44378	0.13650
1012.51518	0.13325
1010.58658	0.13028
1008.65798	0.12762
1006.72938	0.12507
1004.80078	0.12256
1002.87218	0.12015
1000.94358	0.11779
999.01498	0.11553
997.08638	0.11348
995.15778	0.11162
993.22918	0.10991
991.30058	0.10840
989.37198	0.10714
987.44338	0.10603
985.51478	0.10497
983.58618	0.10387
981.65758	0.10256
979.72898	0.10085
977.80037	0.09872
975.87177	0.09638
973.94317	0.09410
972.01457	0.09204
970.08597	0.09018
968.15737	0.08847
966.22877	0.08697
964.30017	0.08567
962.37157	0.08447
960.44297	0.08334
958.51437	0.08227
956.58577	0.08121
954.65717	0.08011
952.72857	0.07894
950.79997	0.07776
948.87137	0.07654
946.94277	0.07526
945.01417	0.07399
943.08557	0.07284
941.15697	0.07176
939.22837	0.07063
937.29977	0.06954
935.37117	0.06876
933.44257	0.06824
931.51397	0.06779
929.58537	0.06730
927.65677	0.06678
925.72817	0.06626
923.79957	0.06583
921.87096	0.06554
919.94236	0.06524
918.01376	0.06488
916.08516	0.06463
914.15656	0.06447
912.22796	0.06424
910.29936	0.06395
908.37076	0.06360
906.44216	0.06322
904.51356	0.06294
902.58496	0.06284
900.65636	0.06286
898.72776	0.06294
896.79916	0.06304
894.87056	0.06320
892.94196	0.06339
891.01336	0.06349
889.08476	0.06342
887.15616	0.06325
885.22756	0.06312
883.29896	0.06313
881.37036	0.06315
879.44176	0.06318
877.51316	0.06346
875.58456	0.06398
873.65596	0.06447
871.72736	0.06492
869.79876	0.06538
867.87016	0.06578
865.94155	0.06620
864.01295	0.06678
862.08435	0.06747
860.15575	0.06811
858.22715	0.06873
856.29855	0.06937
854.36995	0.06976
852.44135	0.06979
850.51275	0.06970
848.58415	0.06956
846.65555	0.06925
844.72695	0.06874
842.79835	0.06792
840.86975	0.06691
838.94115	0.06608
837.01255	0.06565
835.08395	0.06561
833.15535	0.06573
831.22675	0.06584
829.29815	0.06609
827.36955	0.06649
825.44095	0.06690
823.51235	0.06736
821.58375	0.06782
819.65515	0.06794
817.72655	0.06768
815.79795	0.06734
813.86935	0.06702
811.94075	0.06665
810.01214	0.06621
808.08354	0.06574
806.15494	0.06526
804.22634	0.06470
802.29774	0.06407
800.36914	0.06345
798.44054	0.06298
796.51194	0.06270
794.58334	0.06256
792.65474	0.06247
790.72614	0.06248
788.79754	0.06269
786.86894	0.06305
784.94034	0.06348
783.01174	0.06387
781.08314	0.06429
779.15454	0.06474
777.22594	0.06505
775.29734	0.06518
773.36874	0.06529
771.44014	0.06547
769.51154	0.06578
767.58294	0.06615
765.65434	0.06640
763.72574	0.06640
761.79714	0.06622
759.86854	0.06614
757.93994	0.06635
756.01134	0.06676
754.08273	0.06726
752.15413	0.06780
750.22553	0.06831
748.29693	0.06870
746.36833	0.06900
744.43973	0.06929
742.51113	0.06952
740.58253	0.06969
738.65393	0.06998
736.72533	0.07058
734.79673	0.07145
732.86813	0.07261
730.93953	0.07433
729.01093	0.07673
727.08233	0.07960
725.15373	0.08237
723.22513	0.08444
721.29653	0.08524
719.36793	0.08421
717.43933	0.08160
715.51073	0.07856
713.58213	0.07621
711.65353	0.07485
709.72493	0.07411
707.79633	0.07365
705.86773	0.07323
703.93913	0.07283
702.01053	0.07260
700.08193	0.07245
698.15332	0.07219
696.22472	0.07188
694.29612	0.07177
692.36752	0.07195
690.43892	0.07225
688.51032	0.07242
686.58172	0.07257
684.65312	0.07301
682.72452	0.07362
680.79592	0.07404
678.86732	0.07446
676.93872	0.07513
675.01012	0.07574
673.08152	0.07608
671.15292	0.07638
669.22432	0.07715
667.29572	0.07801
665.36712	0.07802
663.43852	0.07793
661.50992	0.07804
659.58132	0.07824
657.65272	0.07855
655.72412	0.07889
653.79552	0.07914
651.86692	0.07952
649.93832	0.08013
648.00972	0.08067
646.08112	0.08102
644.15252	0.08138
642.22391	0.08190
640.29531	0.08240
638.36671	0.08266
636.43811	0.08287
634.50951	0.08316
632.58091	0.08338
630.65231	0.08360
628.72371	0.08394
626.79511	0.08434
624.86651	0.08480
622.93791	0.08536
621.00931	0.08587
619.08071	0.08626
617.15211	0.08683
615.22351	0.08777
613.29491	0.08878
611.36631	0.08956
609.43771	0.09017
607.50911	0.09099
605.58051	0.09201
603.65191	0.09278
601.72331	0.09302
599.79471	0.09294
597.86611	0.09282
595.93751	0.09264
594.00891	0.09230
592.08031	0.09204
590.15171	0.09203
588.22311	0.09223
586.29450	0.09259
584.36590	0.09301
582.43730	0.09345
580.50870	0.09391
578.58010	0.09438
576.65150	0.09483
574.72290	0.09518
572.79430	0.09529
570.86570	0.09519
568.93710	0.09513
567.00850	0.09535
565.07990	0.09585
563.15130	0.09639
561.22270	0.09689
559.29410	0.09734
557.36550	0.09760
555.43690	0.09758
553.50830	0.09739
551.57970	0.09720
549.65110	0.09714
547.72250	0.09715
545.79390	0.09718
543.86530	0.09727
541.93670	0.09738
540.00810	0.09765
538.07950	0.09812
536.15090	0.09833
534.22230	0.09813
532.29370	0.09811
530.36509	0.09840
528.43649	0.09855
526.50789	0.09845
524.57929	0.09832
522.65069	0.09817
520.72209	0.09790
518.79349	0.09760
516.86489	0.09757
514.93629	0.09783
513.00769	0.09805
511.07909	0.09796
509.15049	0.09761
507.22189	0.09736
505.29329	0.09730
503.36469	0.09728
501.43609	0.09737
499.50749	0.09741
497.57889	0.09732
495.65029	0.09741
493.72169	0.09757
491.79309	0.09741
489.86449	0.09711
487.93589	0.09707
486.00729	0.09727
484.07869	0.09749
482.15009	0.09751
480.22149	0.09738
478.29289	0.09754
476.36429	0.09811
474.43568	0.09846
472.50708	0.09857
470.57848	0.09888
468.64988	0.09915
466.72128	0.09936
464.79268	0.09970
462.86408	0.09998
460.93548	0.10029
459.00688	0.10068
457.07828	0.10085
455.14968	0.10093
453.22108	0.10058
451.29248	0.09940
449.36388	0.09848
447.43528	0.09909
445.50668	0.10047
443.57808	0.10101
441.64948	0.10082
439.72088	0.10078
437.79228	0.10065
435.86368	0.09998
433.93508	0.09894
432.00648	0.09793
430.07788	0.09726
428.14928	0.09737
426.22068	0.09782
424.29208	0.09700
422.36348	0.09512
420.43488	0.09404
418.50627	0.09318
416.57767	0.09152
414.64907	0.09090
412.72047	0.09153
410.79187	0.09155
408.86327	0.09003
406.93467	0.08883
405.00607	0.08925
403.07747	0.08960
401.14887	0.08979
399.22027	0.09036
